        Tracepoints 
                      Tracepoint Locations 
Launcher CG       x =     60.000   y =      7.000 

                        Joint a               Joint b            Launcher CG      
Input (deg)          ax        ay          bx         by        X          Y     
-1.393,            96.300,     11.300,    200.000,      8.000,     60.000,      7.000
-0.857,            96.317,     12.161,    199.989,      8.086,     59.986,      8.132
-0.321,            96.326,     13.022,    199.969,      8.253,     59.968,      9.237
 0.215,            96.327,     13.884,    199.939,      8.488,     59.947,     10.318
 0.751,            96.319,     14.745,    199.900,      8.784,     59.921,     11.378
 1.287,            96.304,     15.606,    199.854,      9.131,     59.889,     12.420
 1.823,            96.281,     16.467,    199.801,      9.525,     59.852,     13.445
 2.359,            96.249,     17.327,    199.740,      9.959,     59.808,     14.456
 2.895,            96.210,     18.188,    199.672,     10.428,     59.758,     15.454
 3.431,            96.162,     19.048,    199.597,     10.930,     59.702,     16.440
 3.967,            96.107,     19.907,    199.515,     11.459,     59.638,     17.416
 4.503,            96.043,     20.766,    199.426,     12.014,     59.567,     18.382
 5.039,            95.971,     21.624,    199.330,     12.591,     59.489,     19.339
 5.575,            95.892,     22.482,    199.227,     13.189,     59.404,     20.289
 6.111,            95.804,     23.339,    199.118,     13.805,     59.311,     21.231
 6.647,            95.708,     24.195,    199.001,     14.438,     59.211,     22.165
 7.183,            95.605,     25.050,    198.878,     15.085,     59.103,     23.094
 7.719,            95.493,     25.903,    198.747,     15.746,     58.988,     24.016
 8.255,            95.373,     26.756,    198.610,     16.420,     58.865,     24.932
 8.790,            95.246,     27.608,    198.465,     17.104,     58.735,     25.843
 9.326,            95.110,     28.459,    198.314,     17.799,     58.596,     26.749
 9.862,            94.967,     29.308,    198.155,     18.503,     58.450,     27.649
10.398,            94.815,     30.156,    197.989,     19.215,     58.297,     28.545
10.934,            94.656,     31.002,    197.816,     19.935,     58.135,     29.436
11.470,            94.488,     31.847,    197.636,     20.662,     57.966,     30.323
12.006,            94.313,     32.690,    197.449,     21.394,     57.790,     31.205
12.542,            94.130,     33.532,    197.255,     22.133,     57.605,     32.083
13.078,            93.939,     34.371,    197.053,     22.876,     57.413,     32.957
13.614,            93.740,     35.209,    196.844,     23.625,     57.213,     33.827
14.150,            93.534,     36.045,    196.628,     24.377,     57.005,     34.693
14.686,            93.319,     36.880,    196.405,     25.133,     56.789,     35.555
15.222,            93.097,     37.712,    196.174,     25.892,     56.566,     36.413
15.758,            92.867,     38.542,    195.936,     26.654,     56.335,     37.267
16.294,            92.629,     39.369,    195.691,     27.418,     56.097,     38.117
16.830,            92.384,     40.195,    195.439,     28.185,     55.851,     38.963
17.366,            92.131,     41.018,    195.179,     28.953,     55.597,     39.806
17.902,            91.870,     41.839,    194.912,     29.723,     55.335,     40.645
18.438,            91.601,     42.657,    194.638,     30.495,     55.066,     41.479
18.974,            91.325,     43.473,    194.357,     31.267,     54.790,     42.311
19.510,            91.041,     44.286,    194.068,     32.040,     54.505,     43.138
20.046,            90.750,     45.096,    193.772,     32.814,     54.213,     43.961
20.582,            90.451,     45.904,    193.469,     33.588,     53.914,     44.781
21.118,            90.144,     46.709,    193.159,     34.362,     53.607,     45.597
21.654,            89.830,     47.511,    192.842,     35.136,     53.293,     46.409
22.190,            89.508,     48.310,    192.517,     35.909,     52.971,     47.217
22.726,            89.179,     49.106,    192.185,     36.682,     52.642,     48.021
23.262,            88.843,     49.899,    191.847,     37.455,     52.305,     48.821
23.798,            88.499,     50.688,    191.501,     38.226,     51.961,     49.617
24.334,            88.148,     51.475,    191.147,     38.997,     51.610,     50.409
24.870,            87.789,     52.258,    190.787,     39.766,     51.251,     51.197
25.406,            87.424,     53.037,    190.420,     40.535,     50.885,     51.980
25.942,            87.050,     53.814,    190.046,     41.301,     50.512,     52.760
26.478,            86.670,     54.586,    189.664,     42.066,     50.131,     53.535
27.014,            86.283,     55.355,    189.276,     42.829,     49.744,     54.307
27.550,            85.888,     56.121,    188.881,     43.591,     49.349,     55.074
28.086,            85.486,     56.883,    188.479,     44.350,     48.947,     55.836
28.622,            85.077,     57.640,    188.070,     45.107,     48.538,     56.594
29.158,            84.661,     58.395,    187.654,     45.862,     48.122,     57.348
29.694,            84.238,     59.145,    187.231,     46.614,     47.699,     58.097
30.230,            83.808,     59.891,    186.801,     47.364,     47.269,     58.842
30.765,            83.370,     60.633,    186.365,     48.112,     46.832,     59.583
31.301,            82.926,     61.371,    185.921,     48.856,     46.388,     60.318
31.837,            82.476,     62.105,    185.471,     49.598,     45.937,     61.049
32.373,            82.018,     62.834,    185.015,     50.337,     45.479,     61.775
32.909,            81.553,     63.559,    184.552,     51.072,     45.015,     62.497
33.445,            81.082,     64.280,    184.082,     51.805,     44.544,     63.214
33.981,            80.604,     64.997,    183.605,     52.534,     44.066,     63.925
34.517,            80.119,     65.709,    183.122,     53.260,     43.581,     64.632
35.053,            79.628,     66.416,    182.633,     53.983,     43.090,     65.334
35.589,            79.130,     67.119,    182.137,     54.702,     42.592,     66.031
36.125,            78.625,     67.817,    181.634,     55.417,     42.088,     66.723
36.661,            78.114,     68.510,    181.126,     56.129,     41.577,     67.410
37.197,            77.597,     69.198,    180.610,     56.837,     41.060,     68.091
37.733,            77.073,     69.882,    180.089,     57.541,     40.536,     68.768
38.269,            76.543,     70.561,    179.561,     58.241,     40.006,     69.439
38.805,            76.006,     71.234,    179.027,     58.937,     39.470,     70.104
39.341,            75.463,     71.903,    178.487,     59.629,     38.927,     70.765
39.877,            74.914,     72.566,    177.941,     60.316,     38.379,     71.420
40.413,            74.359,     73.225,    177.389,     61.000,     37.824,     72.069
40.949,            73.798,     73.878,    176.831,     61.679,     37.262,     72.713
41.485,            73.230,     74.526,    176.266,     62.354,     36.695,     73.351
42.021,            72.657,     75.168,    175.696,     63.024,     36.122,     73.984
42.557,            72.077,     75.805,    175.120,     63.689,     35.543,     74.611
43.093,            71.492,     76.437,    174.538,     64.350,     34.958,     75.232
43.629,            70.900,     77.063,    173.950,     65.007,     34.367,     75.848
44.165,            70.303,     77.684,    173.357,     65.658,     33.770,     76.458
44.701,            69.700,     78.299,    172.757,     66.305,     33.168,     77.061
45.237,            69.092,     78.908,    172.152,     66.947,     32.559,     77.659
45.773,            68.477,     79.512,    171.542,     67.583,     31.945,     78.251
46.309,            67.857,     80.110,    170.926,     68.215,     31.326,     78.837
46.845,            67.232,     80.702,    170.304,     68.842,     30.701,     79.416
47.381,            66.601,     81.288,    169.677,     69.463,     30.070,     79.990
47.917,            65.964,     81.868,    169.045,     70.080,     29.434,     80.557
48.453,            65.323,     82.442,    168.407,     70.691,     28.793,     81.119
48.989,            64.675,     83.010,    167.764,     71.296,     28.146,     81.674
49.525,            64.023,     83.572,    167.116,     71.897,     27.494,     82.222
50.061,            63.365,     84.128,    166.463,     72.492,     26.837,     82.764
50.597,            62.702,     84.678,    165.804,     73.081,     26.174,     83.300
51.133,            62.034,     85.222,    165.141,     73.665,     25.507,     83.829
51.669,            61.361,     85.759,    164.472,     74.243,     24.834,     84.352
52.204,            60.683,     86.290,    163.799,     74.816,     24.157,     84.868
52.740,            60.000,     86.815,    163.121,     75.382,     23.474,     85.378
53.276,            59.312,     87.333,    162.437,     75.943,     22.787,     85.881
53.812,            58.619,     87.845,    161.750,     76.499,     22.095,     86.377
54.348,            57.922,     88.350,    161.057,     77.048,     21.398,     86.867
54.884,            57.220,     88.849,    160.360,     77.592,     20.697,     87.350
55.420,            56.513,     89.341,    159.658,     78.129,     19.990,     87.826
55.956,            55.802,     89.826,    158.951,     78.661,     19.280,     88.295
56.492,            55.086,     90.305,    158.241,     79.186,     18.565,     88.757
57.028,            54.365,     90.777,    157.525,     79.706,     17.845,     89.213
57.564,            53.641,     91.242,    156.806,     80.219,     17.121,     89.661
58.100,            52.912,     91.701,    156.082,     80.726,     16.393,     90.102
58.636,            52.178,     92.153,    155.354,     81.227,     15.660,     90.537
59.172,            51.441,     92.597,    154.622,     81.722,     14.923,     90.964
59.708,            50.699,     93.035,    153.885,     82.210,     14.183,     91.384
60.244,            49.953,     93.466,    153.145,     82.692,     13.438,     91.797
60.780,            49.204,     93.890,    152.401,     83.168,     12.689,     92.202
61.316,            48.450,     94.307,    151.653,     83.637,     11.936,     92.601
61.852,            47.693,     94.717,    150.901,     84.100,     11.180,     92.992
62.388,            46.931,     95.120,    150.145,     84.556,     10.419,     93.376
62.924,            46.166,     95.515,    149.385,     85.006,      9.655,     93.752
63.460,            45.398,     95.904,    148.622,     85.449,      8.887,     94.121
63.996,            44.625,     96.285,    147.855,     85.886,      8.116,     94.483
64.532,            43.850,     96.659,    147.085,     86.316,      7.341,     94.837
65.068,            43.070,     97.025,    146.312,     86.739,      6.563,     95.183
65.604,            42.288,     97.385,    145.535,     87.156,      5.781,     95.523
66.140,            41.502,     97.737,    144.754,     87.566,      4.996,     95.854
66.676,            40.712,     98.082,    143.971,     87.969,      4.208,     96.178
67.212,            39.920,     98.419,    143.184,     88.366,      3.417,     96.494
67.748,            39.124,     98.749,    142.395,     88.755,      2.622,     96.803
68.284,            38.326,     99.071,    141.602,     89.138,      1.825,     97.104
68.820,            37.524,     99.386,    140.806,     89.514,      1.025,     97.398
69.356,            36.720,     99.694,    140.007,     89.884,      0.221,     97.683
69.892,            35.912,     99.993,    139.206,     90.246,     -0.585,     97.961
70.428,            35.102,    100.286,    138.402,     90.601,     -1.394,     98.231
70.964,            34.289,    100.570,    137.595,     90.950,     -2.205,     98.493
71.500,            33.474,    100.848,    136.785,     91.291,     -3.019,     98.747
72.036,            32.656,    101.117,    135.973,     91.626,     -3.836,     98.994
72.572,            31.835,    101.379,    135.159,     91.953,     -4.655,     99.233
73.108,            31.013,    101.633,    134.342,     92.274,     -5.477,     99.463
73.644,            30.187,    101.879,    133.523,     92.587,     -6.301,     99.686
74.179,            29.360,    102.118,    132.701,     92.894,     -7.127,     99.901
74.715,            28.530,    102.349,    131.878,     93.193,     -7.955,    100.107
75.251,            27.698,    102.572,    131.052,     93.485,     -8.785,    100.306
75.787,            26.864,    102.787,    130.224,     93.770,     -9.618,    100.497
76.323,            26.029,    102.995,    129.395,     94.048,    -10.452,    100.680
76.859,            25.191,    103.195,    128.563,     94.319,    -11.288,    100.854
77.395,            24.351,    103.386,    127.729,     94.583,    -12.126,    101.021
77.931,            23.510,    103.571,    126.894,     94.840,    -12.966,    101.179
78.467,            22.667,    103.747,    126.057,     95.089,    -13.807,    101.329
79.003,            21.822,    103.915,    125.219,     95.332,    -14.650,    101.471
79.539,            20.976,    104.075,    124.379,     95.567,    -15.494,    101.605
80.075,            20.128,    104.228,    123.537,     95.795,    -16.340,    101.731
80.611,            19.279,    104.372,    122.695,     96.015,    -17.187,    101.849
81.147,            18.429,    104.509,    121.850,     96.229,    -18.036,    101.958
81.683,            17.577,    104.637,    121.005,     96.435,    -18.885,    102.059
82.219,            16.725,    104.758,    120.159,     96.635,    -19.736,    102.152
82.755,            15.871,    104.870,    119.311,     96.827,    -20.588,    102.237
83.291,            15.016,    104.975,    118.462,     97.011,    -21.441,    102.313
83.827,            14.160,    105.072,    117.613,     97.189,    -22.295,    102.381
84.363,            13.303,    105.160,    116.762,     97.359,    -23.149,    102.441
84.899,            12.446,    105.241,    115.911,     97.522,    -24.004,    102.492
85.435,            11.588,    105.313,    115.059,     97.678,    -24.860,    102.536
85.971,            10.729,    105.378,    114.206,     97.827,    -25.717,    102.570
86.507,             9.869,    105.434,    113.353,     97.969,    -26.574,    102.597
87.043,             9.010,    105.483,    112.499,     98.103,    -27.432,    102.615
87.579,             8.149,    105.523,    111.645,     98.230,    -28.289,    102.625
88.115,             7.289,    105.556,    110.791,     98.350,    -29.148,    102.627
88.651,             6.428,    105.580,    109.936,     98.463,    -30.006,    102.620
89.187,             5.567,    105.596,    109.081,     98.568,    -30.864,    102.605
89.723,             4.705,    105.604,    108.226,     98.667,    -31.723,    102.581
90.259,             3.844,    105.604,    107.371,     98.758,    -32.582,    102.549
90.795,             2.983,    105.597,    106.515,     98.842,    -33.440,    102.509
91.331,             2.122,    105.581,    105.660,     98.919,    -34.298,    102.460
91.867,             1.261,    105.557,    104.805,     98.989,    -35.156,    102.403
92.403,             0.400,    105.524,    103.951,     99.052,    -36.014,    102.338
92.939,            -0.460,    105.484,    103.096,     99.108,    -36.872,    102.264
93.475,            -1.320,    105.436,    102.242,     99.156,    -37.728,    102.182
94.011,            -2.179,    105.380,    101.389,     99.198,    -38.585,    102.091
94.547,            -3.038,    105.316,    100.536,     99.232,    -39.440,    101.992
95.083,            -3.896,    105.243,     99.684,     99.260,    -40.295,    101.885
95.619,            -4.754,    105.163,     98.832,     99.280,    -41.150,    101.769
96.154,            -5.610,    105.075,     97.981,     99.294,    -42.003,    101.645
96.690,            -6.466,    104.978,     97.131,     99.300,    -42.855,    101.512
97.226,            -7.321,    104.874,     96.281,     99.300,    -43.707,    101.372
97.762,            -8.175,    104.762,     95.433,     99.292,    -44.557,    101.222
98.298,            -9.028,    104.641,     94.586,     99.278,    -45.406,    101.065
98.834,            -9.880,    104.513,     93.740,     99.257,    -46.254,    100.899
99.370,           -10.730,    104.377,     92.895,     99.229,    -47.101,    100.725
99.906,           -11.579,    104.233,     92.051,     99.194,    -47.946,    100.542
100.442,           -12.427,    104.081,     91.209,     99.153,    -48.790,    100.351
100.978,           -13.273,    103.921,     90.368,     99.104,    -49.632,    100.152
101.514,           -14.118,    103.753,     89.528,     99.049,    -50.473,     99.944
102.050,           -14.961,    103.577,     88.690,     98.988,    -51.311,     99.728
102.586,           -15.802,    103.393,     87.854,     98.919,    -52.149,     99.504
103.122,           -16.642,    103.201,     87.019,     98.844,    -52.984,     99.272
103.658,           -17.480,    103.002,     86.186,     98.762,    -53.817,     99.031
104.194,           -18.316,    102.795,     85.355,     98.674,    -54.648,     98.782
104.730,           -19.150,    102.580,     84.526,     98.579,    -55.478,     98.525
105.266,           -19.981,    102.357,     83.699,     98.478,    -56.305,     98.259
105.802,           -20.811,    102.126,     82.873,     98.370,    -57.130,     97.986
106.338,           -21.639,    101.888,     82.050,     98.256,    -57.952,     97.704
106.874,           -22.464,    101.641,     81.229,     98.135,    -58.773,     97.414
107.410,           -23.287,    101.388,     80.410,     98.008,    -59.590,     97.115
107.946,           -24.108,    101.126,     79.594,     97.875,    -60.406,     96.809
108.482,           -24.926,    100.857,     78.780,     97.736,    -61.218,     96.494
109.018,           -25.741,    100.580,     77.968,     97.590,    -62.028,     96.172
109.554,           -26.554,    100.296,     77.159,     97.438,    -62.836,     95.841
110.090,           -27.364,    100.004,     76.352,     97.280,    -63.640,     95.502
110.626,           -28.172,     99.704,     75.548,     97.116,    -64.442,     95.155
111.162,           -28.976,     99.397,     74.747,     96.946,    -65.240,     94.800
111.698,           -29.778,     99.082,     73.949,     96.769,    -66.036,     94.437
112.234,           -30.577,     98.760,     73.153,     96.587,    -66.828,     94.066
112.770,           -31.373,     98.430,     72.360,     96.399,    -67.617,     93.687
113.306,           -32.165,     98.093,     71.570,     96.206,    -68.403,     93.300
113.842,           -32.955,     97.749,     70.783,     96.006,    -69.186,     92.905
114.378,           -33.741,     97.397,     70.000,     95.801,    -69.965,     92.502
114.914,           -34.523,     97.038,     69.219,     95.589,    -70.741,     92.091
115.450,           -35.303,     96.672,     68.442,     95.373,    -71.513,     91.672
115.986,           -36.079,     96.298,     67.667,     95.151,    -72.282,     91.245
116.522,           -36.851,     95.917,     66.897,     94.923,    -73.047,     90.811
117.058,           -37.620,     95.529,     66.129,     94.690,    -73.808,     90.369
117.593,           -38.385,     95.133,     65.365,     94.451,    -74.565,     89.919
118.129,           -39.146,     94.731,     64.605,     94.207,    -75.318,     89.461
118.665,           -39.904,     94.321,     63.848,     93.958,    -76.068,     88.995
119.201,           -40.658,     93.905,     63.094,     93.703,    -76.813,     88.522
119.737,           -41.408,     93.481,     62.345,     93.444,    -77.554,     88.041
120.273,           -42.153,     93.050,     61.599,     93.179,    -78.292,     87.553
